#SUBENT      L0002003
#AUTHORS     S.C.Fultz, R.L.Bramblett, J.T.Caldwell, N.A.Kerr
#REFERENCE   Physical Review Vol.127, p.1273
#YEAR        1962
#TITLE       PHOTONEUTRON CROSS-SECTION MEASUREMENTS ON
#+           GOLD USING NEARLY MONOCHROMATIC PHOTONS
#REACTION    (79-AU-197(G,N)79-AU-196,,SIG)+(79-AU-197(G,N+P)78-PT-195,,SIG)
#QUANTITY    Cross section
#SUBP       L0002003 
# Energy (eV) Cross section (b)
8.724e+06 0.023
9.339e+06 0.047
9.646e+06 0.055
9.954e+06 0.062
1.0261e+07 0.085
1.0568e+07 0.097
1.0876e+07 0.112
1.1183e+07 0.148
1.149e+07 0.195
1.1797e+07 0.226
1.2105e+07 0.305
1.2412e+07 0.362
1.2719e+07 0.444
1.3027e+07 0.498
1.3334e+07 0.516
1.3641e+07 0.549
1.3949e+07 0.519
1.4256e+07 0.502
1.4563e+07 0.433
1.487e+07 0.402
1.5178e+07 0.38
1.5485e+07 0.302
1.5792e+07 0.242
1.61e+07 0.176
1.6407e+07 0.116
1.6714e+07 0.065
1.7022e+07 0.062
1.7329e+07 0.026
1.7636e+07 0.014
1.7943e+07 0.005
1.9e+07 0.00369238
1.9724e+07 0.00142802
2.0448e+07 0.000552283
2.1172e+07 0.000213594
2.1896e+07 8.2607e-05
2.262e+07 3.19481e-05
2.3344e+07 1.23558e-05
2.4068e+07 4.77859e-06
2.4792e+07 1.84811e-06
2.5516e+07 7.14753e-07
2.624e+07 2.76429e-07
2.6964e+07 1.06908e-07
2.7688e+07 4.13465e-08
2.8412e+07 1.59907e-08
2.9136e+07 6.18436e-09
2.986e+07 2.39179e-09
3.0584e+07 9.25018e-10
3.1308e+07 3.57748e-10
3.2032e+07 1.38358e-10
3.2756e+07 5.35098e-11
3.348e+07 2.06948e-11
3.4204e+07 8.00366e-12
3.4928e+07 3.0954e-12
3.5652e+07 1.19714e-12
3.6376e+07 4.62991e-13
3.71e+07 1.79061e-13
3.7824e+07 6.92513e-14
3.8548e+07 2.67828e-14
3.9272e+07 1.03582e-14
3.9996e+07 4.006e-15
4.072e+07 1.54931e-15
4.1444e+07 5.99193e-16
4.2168e+07 2.31736e-16
4.2892e+07 8.96235e-17
4.3616e+07 3.46617e-17
4.434e+07 1.34053e-17
4.5064e+07 5.18448e-18
4.5788e+07 2.00509e-18
4.6512e+07 7.75463e-19
4.7236e+07 2.99908e-19
4.796e+07 1.15989e-19
4.8684e+07 4.48584e-20
4.9408e+07 1.73489e-20
5.0132e+07 6.70965e-21
5.0856e+07 2.59494e-21
5.158e+07 1.00359e-21
5.2304e+07 3.88135e-22
5.3028e+07 1.5011e-22
5.3752e+07 5.80548e-23
5.4476e+07 2.24526e-23
5.52e+07 8.68348e-24
5.5924e+07 3.35832e-24
5.6648e+07 1.29882e-24
5.7372e+07 5.02316e-25
5.8096e+07 1.9427e-25
5.882e+07 7.51334e-26
5.9544e+07 2.90577e-26
6.0268e+07 1.1238e-26
6.0992e+07 4.34626e-27
6.1716e+07 1.68091e-27
6.244e+07 6.50087e-28
6.3164e+07 2.5142e-28
6.3888e+07 9.7236e-29
6.4612e+07 3.76058e-29
6.5336e+07 1.4544e-29
6.606e+07 5.62484e-30
6.6784e+07 2.1754e-30
6.7508e+07 8.41329e-31
6.8232e+07 3.25382e-31
6.8956e+07 1.25841e-31
6.968e+07 4.86686e-32
7.0404e+07 1.88225e-32
7.1128e+07 7.27955e-33
7.1852e+07 2.81535e-33
7.2576e+07 1.08883e-33
7.33e+07 4.21103e-34
7.4024e+07 1.62861e-34
7.4748e+07 6.29859e-35
7.5472e+07 2.43597e-35
7.6196e+07 9.42105e-36
7.692e+07 3.64357e-36
7.7644e+07 1.40914e-36
7.8368e+07 5.44982e-37
7.9092e+07 2.10771e-37
7.9816e+07 8.15151e-38
8.054e+07 3.15258e-38
8.1264e+07 1.21925e-38
8.1988e+07 4.71543e-39
8.2712e+07 1.82368e-39
8.3436e+07 7.05305e-40
8.416e+07 2.72775e-40
8.4884e+07 1.05495e-40
8.5608e+07 4.08e-41
8.6332e+07 1.57793e-41
8.7056e+07 6.10261e-42
8.778e+07 2.36017e-42
8.8504e+07 9.1279e-43
8.9228e+07 3.5302e-43
8.9952e+07 1.3653e-43
9.0676e+07 5.28025e-44
9.14e+07 2.04212e-44
9.2124e+07 7.89787e-45
9.2848e+07 3.05448e-45
9.3572e+07 1.18131e-45
9.4296e+07 4.56871e-46
9.502e+07 1.76694e-46
9.5744e+07 6.83359e-47
9.6468e+07 2.64287e-47
9.7192e+07 1.02213e-47
9.7916e+07 3.95305e-48
9.864e+07 1.52883e-48
9.9364e+07 5.91272e-49
1.00088e+08 2.28673e-49
1.00812e+08 8.84388e-50
1.01536e+08 3.42035e-50
1.0226e+08 1.32281e-50
1.02984e+08 5.11595e-51
1.03708e+08 1.97858e-51
1.04432e+08 7.65212e-52
1.05156e+08 2.95944e-52
1.0588e+08 1.14456e-52
1.06604e+08 4.42655e-53
1.07328e+08 1.71196e-53
1.08052e+08 6.62096e-54
1.08776e+08 2.56064e-54
1.095e+08 9.90322e-55
1.10224e+08 3.83005e-55
1.10948e+08 1.48126e-55
1.11672e+08 5.72875e-56
1.12396e+08 2.21558e-56
1.1312e+08 8.5687e-57
1.13844e+08 3.31393e-57
1.14568e+08 1.28165e-57
1.15292e+08 4.95677e-58
1.16016e+08 1.91702e-58
1.1674e+08 7.41402e-59
1.17464e+08 2.86736e-59
1.18188e+08 1.10894e-59
1.18912e+08 4.28881e-60
1.19636e+08 1.65869e-60
1.2036e+08 6.41494e-61
1.21084e+08 2.48096e-61
1.21808e+08 9.59507e-62
1.22532e+08 3.71087e-62
1.23256e+08 1.43517e-62
1.2398e+08 5.55049e-63
1.24704e+08 2.14664e-63
1.25428e+08 8.30208e-64
1.26152e+08 3.21081e-64
1.26876e+08 1.24177e-64
1.276e+08 4.80253e-65
1.28324e+08 1.85737e-65
1.29048e+08 7.18333e-66
1.29772e+08 2.77814e-66
1.30496e+08 1.07444e-66
1.3122e+08 4.15536e-67
1.31944e+08 1.60708e-67
1.32668e+08 6.21534e-68
1.33392e+08 2.40377e-68
1.34116e+08 9.29652e-69
1.3484e+08 3.59541e-69
1.35564e+08 1.39052e-69
1.36288e+08 5.37779e-70
1.37012e+08 2.07985e-70
1.37736e+08 8.04376e-71
1.3846e+08 3.11091e-71
1.39184e+08 1.20314e-71
1.39908e+08 4.6531e-72
1.40632e+08 1.79958e-72
1.41356e+08 6.95982e-73
1.4208e+08 2.69169e-73
1.42804e+08 1.04101e-73
1.43528e+08 4.02607e-74
1.44252e+08 1.55707e-74
1.44976e+08 6.02194e-75
1.457e+08 2.32897e-75
1.46424e+08 9.00725e-76
1.47148e+08 3.48353e-76
1.47872e+08 1.34725e-76
1.48596e+08 5.21045e-77
1.4932e+08 2.01513e-77
1.50044e+08 7.79347e-78
1.50768e+08 3.01411e-78
1.51492e+08 1.1657e-78
1.52216e+08 4.50832e-79
1.5294e+08 1.74358e-79
1.53664e+08 6.74326e-80
1.54388e+08 2.60794e-80
1.55112e+08 1.00861e-80
1.55836e+08 3.90079e-81
1.5656e+08 1.50862e-81
1.57284e+08 5.83457e-82
1.58008e+08 2.25651e-82
1.58732e+08 8.72698e-83
1.59456e+08 3.37514e-83
1.6018e+08 1.30533e-83
1.60904e+08 5.04833e-84
1.61628e+08 1.95243e-84
1.62352e+08 7.55097e-85
1.63076e+08 2.92032e-85
1.638e+08 1.12943e-85
1.64524e+08 4.36804e-86
1.65248e+08 1.68933e-86
1.65972e+08 6.53344e-87
1.66696e+08 2.52679e-87
1.6742e+08 9.77231e-88
1.68144e+08 3.77942e-88
1.68868e+08 1.46168e-88
1.69592e+08 5.65302e-89
1.70316e+08 2.18629e-89
1.7104e+08 8.45544e-90
1.71764e+08 3.27012e-90
1.72488e+08 1.26471e-90
1.73212e+08 4.89125e-91
1.73936e+08 1.89168e-91
1.7466e+08 7.31602e-92
1.75384e+08 2.82945e-92
1.76108e+08 1.09429e-92
1.76832e+08 4.23212e-93
1.77556e+08 1.63676e-93
1.7828e+08 6.33015e-94
1.79004e+08 2.44817e-94
1.79728e+08 9.46824e-95
1.80452e+08 3.66182e-95
1.81176e+08 1.4162e-95
1.819e+08 5.47712e-96
1.82624e+08 2.11827e-96
1.83348e+08 8.19234e-97
1.84072e+08 3.16837e-97
1.84796e+08 1.22536e-97
1.8552e+08 4.73905e-98
1.86244e+08 1.83282e-98
1.86968e+08 7.08838e-99
1.87692e+08 2.74141e-99
1.88416e+08 1.06024e-99
1.8914e+08 4.10044e-100
1.89864e+08 1.58583e-100
1.90588e+08 6.13318e-101
1.91312e+08 2.37199e-101
1.92036e+08 9.17363e-102
1.9276e+08 3.54788e-102
1.93484e+08 1.37213e-102
1.94208e+08 5.3067e-103
1.94932e+08 2.05235e-103
1.95656e+08 7.93743e-104
1.9638e+08 3.06978e-104
1.97104e+08 1.18723e-104
1.97828e+08 4.59159e-105
1.98552e+08 1.77579e-105
1.99276e+08 6.86782e-106
2e+08 2.65611e-106
